ENVI ASCII Plot File [Wed Jun 03 14:27:05 2015]
Column 1: Wavelength
Column 2: #1 X:537 Y:149 [5x5 AVG]~~1
  1.001350             1.000000
  1.007900             1.000000
  1.014450             1.164158
  1.021000             1.159755
  1.027550             1.169514
  1.034100             1.170020
  1.040650             1.171284
  1.047200             1.177551
  1.053750             1.176763
  1.060300             1.180294
  1.066850             1.182138
  1.073410             1.182297
  1.079960             1.182731
  1.086510             1.181141
  1.093070             1.181422
  1.099620             1.183395
  1.106170             1.184843
  1.112730             1.186124
  1.119280             1.187845
  1.125840             1.184076
  1.132390             1.186545
  1.138950             1.187766
  1.145510             1.187746
  1.152060             1.188064
  1.158620             1.190964
  1.165180             1.191680
  1.171730             1.190974
  1.178290             1.191941
  1.184850             1.193022
  1.191410             1.193000
  1.197970             1.194585
  1.204530             1.196038
  1.211090             1.194645
  1.217650             1.196111
  1.224210             1.196611
  1.230770             1.193913
  1.237330             1.197003
  1.243890             1.195367
  1.250450             1.196833
  1.257010             1.199472
  1.263570             1.198674
  1.270140             1.199594
  1.276700             1.198743
  1.283260             1.200309
  1.289830             1.200223
  1.296390             1.202970
  1.302950             1.202732
  1.309520             1.202846
  1.316080             1.201692
  1.322650             1.204800
  1.329210             1.203984
  1.335780             1.203935
  1.342340             1.203916
  1.348910             1.206673
  1.355480             1.204854
  1.362050             1.207964
  1.368610             1.204962
  1.375180             1.205493
  1.381750             1.204189
  1.388320             1.206743
  1.394890             1.205564
  1.401450             1.201798
  1.408020             1.199441
  1.414590             1.197686
  1.421160             1.193991
  1.427730             1.195015
  1.434310             1.194178
  1.440880             1.196679
  1.447450             1.200704
  1.454020             1.204335
  1.460590             1.209829
  1.467160             1.208231
  1.473740             1.214655
  1.480310             1.209759
  1.486880             1.218690
  1.493460             1.214453
  1.500030             1.216093
  1.506610             1.222082
  1.513180             1.216900
  1.519760             1.218082
  1.526330             1.219859
  1.532910             1.218516
  1.539480             1.222804
  1.546060             1.220905
  1.552640             1.226741
  1.559210             1.222764
  1.565790             1.224106
  1.572370             1.222095
  1.578950             1.221379
  1.585520             1.223477
  1.592100             1.223702
  1.598680             1.223019
  1.605260             1.222301
  1.611840             1.223869
  1.618420             1.225170
  1.625000             1.223432
  1.631580             1.224319
  1.638160             1.229690
  1.644740             1.231028
  1.651330             1.222924
  1.657910             1.227711
  1.664490             1.234560
  1.671070             1.232868
  1.677660             1.232821
  1.684240             1.235291
  1.690820             1.235811
  1.697410             1.238319
  1.703990             1.233622
  1.710580             1.235743
  1.717160             1.235652
  1.723750             1.234109
  1.730330             1.237318
  1.736920             1.237625
  1.743510             1.237525
  1.750090             1.238647
  1.756680             1.238630
  1.763270             1.241982
  1.769850             1.240352
  1.776440             1.241274
  1.783030             1.243092
  1.789620             1.241037
  1.796210             1.240020
  1.802800             1.244759
  1.809390             1.242866
  1.815980             1.243471
  1.822570             1.239976
  1.829160             1.243395
  1.835750             1.242066
  1.842340             1.243218
  1.848930             1.241577
  1.855520             1.240310
  1.862120             1.238407
  1.868710             1.233604
  1.875300             1.235707
  1.881900             1.232957
  1.888490             1.225723
  1.895080             1.211621
  1.901680             1.202051
  1.908270             1.198178
  1.914870             1.193264
  1.921460             1.189114
  1.928060             1.196733
  1.934650             1.202615
  1.941250             1.208383
  1.947850             1.205248
  1.954440             1.202707
  1.961040             1.214472
  1.967640             1.222470
  1.974240             1.225542
  1.980840             1.227956
  1.987430             1.230419
  1.994030             1.225081
  2.000630             1.222075
  2.007230             1.229447
  2.013830             1.226192
  2.020430             1.224264
  2.027030             1.241750
  2.033630             1.245283
  2.040240             1.245560
  2.046840             1.247258
  2.053440             1.241247
  2.060040             1.241583
  2.066640             1.246695
  2.073250             1.245075
  2.079850             1.250838
  2.086450             1.252086
  2.093060             1.255095
  2.099660             1.252587
  2.106270             1.256342
  2.112870             1.256106
  2.119480             1.250172
  2.126080             1.246497
  2.132690             1.249946
  2.139300             1.249122
  2.145900             1.250088
  2.152510             1.250120
  2.159120             1.247544
  2.165720             1.250907
  2.172330             1.249230
  2.178940             1.247801
  2.185550             1.250061
  2.192160             1.247197
  2.198770             1.244081
  2.205380             1.241192
  2.211990             1.237492
  2.218600             1.236320
  2.225210             1.227881
  2.231820             1.227119
  2.238430             1.226845
  2.245040             1.222403
  2.251650             1.223999
  2.258270             1.219251
  2.264880             1.201964
  2.271490             1.195227
  2.278100             1.187610
  2.284720             1.181035
  2.291330             1.184687
  2.297950             1.187136
  2.304560             1.192486
  2.311180             1.201087
  2.317790             1.203040
  2.324410             1.204594
  2.331020             1.203508
  2.337640             1.199069
  2.344260             1.197193
  2.350870             1.193050
  2.357490             1.188215
  2.364110             1.182019
  2.370720             1.184821
  2.377340             1.181041
  2.383960             1.178081
  2.390580             1.174264
  2.397200             1.172652
  2.403820             1.172814
  2.410440             1.174181
  2.417060             1.176440
  2.423680             1.179254
  2.430300             1.176435
  2.436920             1.179553
  2.443540             1.176577
  2.450170             1.181432
  2.456790             1.177070
  2.463410             1.172509
  2.470030             1.170392
  2.476660             1.168429
  2.483280             1.168878
  2.489900             1.164776
  2.496530             1.159248
  2.503120             1.158026
  2.509720             1.158049
  2.516320             1.156467
  2.522920             1.156316
  2.529510             1.154173
  2.536110             1.155194
  2.542710             1.155939
  2.549310             1.156491
  2.555910             1.156942
  2.562510             1.155041
  2.569110             1.153137
  2.575710             1.153193
  2.582310             1.152186
  2.588910             1.151963
  2.595510             1.150701
  2.602120             1.149505
  2.608720             1.149072
  2.615320             1.141682
  2.621920             1.141512
  2.628530             1.135423
  2.635130             1.136048
  2.641740             1.134236
  2.648340             1.124421
  2.654950             1.120831
  2.661550             1.117799
  2.668160             1.127807
  2.674760             1.120797
  2.681370             1.143919
  2.687980             1.073168
  2.694580             1.185829
  2.701190             1.187557
  2.760680             1.000000
  2.767290             1.000000
  2.773900             1.000000
  2.780520             1.000000
  2.787130             1.000000
  2.793740        NaN
  2.800350        NaN
  2.806970        NaN
  2.813580        NaN
  2.820200             0.847221
  2.826810             0.822606
  2.833430             0.834814
  2.840040             0.849852
  2.846660             0.860346
  2.853280             0.860901
  2.859890             0.858239
  2.866510             0.859676
  2.873130             0.869989
  2.879750             0.873133
  2.886360             0.863034
  2.892980             0.855518
  2.899600             0.850476
  2.906220             0.861168
  2.912840             0.857310
  2.919460             0.850499
  2.926080             0.837318
  2.932700             0.827644
  2.939320             0.820103
  2.945950             0.818762
  2.952570             0.825716
  2.959190             0.836127
  2.965810             0.841364
  2.972440             0.832094
  2.979060             0.808670
  2.985680             0.811209
  2.992310             0.826591
  2.998930             0.841338
  3.005560             0.841306
  3.012180             0.831592
  3.018810             0.824858
  3.025440             0.836801
  3.032060             0.848420
  3.038690             0.849014
  3.045320             0.845085
  3.051950             0.842965
  3.058570             0.846156
  3.065200             0.849925
  3.071830             0.850354
  3.078460             0.848141
  3.085090             0.847125
  3.091720             0.833873
  3.098350             0.825035
  3.104980             0.819979
  3.111610             0.815026
  3.118250             0.812569
  3.124880             0.811507
  3.131510             0.816079
  3.138140             0.826112
  3.144780             0.839440
  3.151410             0.851670
  3.158040             0.864942
  3.164680             0.866895
  3.171310             0.869136
  3.177950             0.872491
  3.184580             0.877133
  3.191220             0.878245
  3.197850             0.878847
  3.204490             0.877947
  3.211130             0.877894
  3.217760             0.879581
  3.224400             0.887546
  3.231040             0.890310
  3.237680             0.893983
  3.244320             0.901619
  3.250960             0.909758
  3.257600             0.916740
  3.264240             0.921601
  3.270880             0.929342
  3.277520             0.935361
  3.284160             0.935902
  3.290800             0.939943
  3.297440             0.945363
  3.304080             0.949451
  3.310730             0.950613
  3.317370             0.955078
  3.324010             0.962807
  3.330660             0.965705
  3.337300             0.967212
  3.343950             0.970170
  3.350590             0.974053
  3.357240             0.976609
  3.363880             0.979027
  3.370530             0.982633
  3.377170             0.984704
  3.383820             0.981774
  3.390470             0.982303
  3.397120             0.986335
  3.403760             0.988540
  3.410410             0.987749
  3.417060             0.988427
  3.423710             0.994483
  3.430360             1.002473
  3.437010             1.010637
  3.443660             1.011856
  3.450310             1.009206
  3.456960             1.011359
  3.463610             1.012890
  3.470260             1.008699
  3.476920             1.002079
  3.483570             1.000002
  3.490220             1.001123
  3.496870             1.005867
  3.503530             1.011235
  3.510180             1.013421
  3.516840             1.013150
  3.523490             1.014073
  3.530150             1.017601
  3.536800             1.021316
  3.543460             1.021815
  3.550110             1.022366
  3.556770             1.025294
  3.563430             1.029087
  3.570080             1.030088
  3.576740             1.027783
  3.583400             1.024090
  3.590060             1.022588
  3.596720             1.025103
  3.603380             1.026367
  3.610040             1.026250
  3.616700             1.027366
  3.623360             1.027991
  3.630020             1.027119
  3.636680             1.027752
  3.643340             1.029142
  3.650000             1.028910
  3.656670             1.024644
  3.663330             1.020756
  3.669990             1.016818
  3.676650             1.018105
  3.683320             1.019162
  3.689980             1.017737
  3.696650             1.017838
  3.703310             1.019229
  3.709980             1.017087
  3.716640             1.012007
  3.723310             1.011366
  3.729980             1.013113
  3.736640             1.010859
  3.743310             1.006232
  3.749980             1.001646
  3.756650             0.998223
  3.763310             0.994453
  3.769980             0.996206
  3.776650             0.997885
  3.783320             0.998746
  3.789990             1.000621
  3.796660             1.000811
  3.803330             1.001540
  3.810000             0.998256
  3.816670             0.991703
  3.823350             0.987621
  3.830020             0.984529
  3.836690             0.981404
  3.843360             0.980026
  3.850040             0.976752
  3.856710             0.974074
  3.863390             0.969654
  3.870060             0.968627
  3.876730             0.967130
  3.883410             0.964848
  3.890080             0.966536
  3.896760             0.968837
  3.903440             0.966612
  3.910110             0.963962
  3.916790             0.959097
  3.923470             NaN
  3.930150             1.000000
  3.936820             1.000000
  4.000000                 NaN
